ALV-7004 or ALV-7004/FAST Data
Date :	"3/28/2010"
Time :	"12:22:16 PM"
Samplename : 	"BSA 15 g/l in 8.3 mM YCl3"
SampMemo(0) : 	""
SampMemo(1) : 	""
SampMemo(2) : 	""
SampMemo(3) : 	""
SampMemo(4) : 	""
SampMemo(5) : 	""
SampMemo(6) : 	""
SampMemo(7) : 	""
SampMemo(8) : 	""
SampMemo(9) : 	""
Temperature [K] :	     295.63035
Viscosity [cp]  :	       0.94388
Refractive Index:	       1.33200
Wavelength [nm] :	     632.80000
Angle [°]       :	      70.00000
Duration [s]    :	        60
Runs            :	         1
Mode            :	"C-CH0/1+1/0"
MeanCR0 [kHz]   :	     312.31725
MeanCR1 [kHz]   :	     392.28919
MeanCR2 [kHz]   :	       0.00000
MeanCR3 [kHz]   :	       0.00000

"Correlation"
  3.12500E-006	  3.23199E-001	  3.21980E-001	 -1.00000E+000	 -1.00000E+000
  6.25000E-006	  3.09809E-001	  3.10963E-001	 -1.00000E+000	 -1.00000E+000
  9.37500E-006	  3.26073E-001	  3.27336E-001	 -1.00000E+000	 -1.00000E+000
  1.25000E-005	  3.09395E-001	  2.99336E-001	 -1.00000E+000	 -1.00000E+000
  1.56250E-005	  3.32431E-001	  3.32475E-001	 -1.00000E+000	 -1.00000E+000
  1.87500E-005	  3.33607E-001	  3.45539E-001	 -1.00000E+000	 -1.00000E+000
  2.18750E-005	  3.27184E-001	  3.35479E-001	 -1.00000E+000	 -1.00000E+000
  2.50000E-005	  3.35697E-001	  3.38963E-001	 -1.00000E+000	 -1.00000E+000
  2.81250E-005	  3.34957E-001	  3.41184E-001	 -1.00000E+000	 -1.00000E+000
  3.12500E-005	  3.39660E-001	  3.32867E-001	 -1.00000E+000	 -1.00000E+000
  3.43750E-005	  3.18213E-001	  3.12008E-001	 -1.00000E+000	 -9.99931E-001
  3.75000E-005	  3.31473E-001	  3.36437E-001	 -1.00000E+000	 -1.00000E+000
  4.06250E-005	  3.35545E-001	  3.33215E-001	 -1.00000E+000	  4.22226E-001
  4.37500E-005	  3.34238E-001	  3.41619E-001	 -1.00000E+000	  5.20686E-001
  4.68750E-005	  3.37526E-001	  3.27815E-001	 -1.00000E+000	 -3.09116E-001
  5.00000E-005	  3.33302E-001	  3.33999E-001	 -1.00000E+000	  8.86236E-001
  5.62500E-005	  3.32213E-001	  3.24963E-001	 -1.00000E+000	  4.27877E-001
  6.25000E-005	  3.37265E-001	  3.36786E-001	 -1.00000E+000	  4.51106E-001
  6.87500E-005	  3.28762E-001	  3.28447E-001	 -9.76344E-001	  5.06177E-001
  7.50000E-005	  3.25856E-001	  3.25006E-001	  7.90911E-001	  3.45695E-001
  8.12500E-005	  3.43753E-001	  3.39181E-001	  4.82284E-001	  3.72962E-001
  8.75000E-005	  3.32975E-001	  3.29753E-001	  4.55783E-001	  3.55315E-001
  9.37500E-005	  3.30090E-001	  3.32649E-001	  4.26356E-001	  3.70015E-001
  1.00000E-004	  3.25583E-001	  3.30047E-001	  3.79304E-001	  3.47645E-001
  1.12500E-004	  3.29829E-001	  3.30428E-001	  3.90284E-001	  3.54552E-001
  1.25000E-004	  3.32965E-001	  3.31930E-001	  3.61117E-001	  3.55627E-001
  1.37500E-004	  3.29486E-001	  3.26781E-001	  3.29379E-001	  3.47445E-001
  1.50000E-004	  3.32186E-001	  3.33607E-001	  3.34329E-001	  3.51701E-001
  1.62500E-004	  3.27505E-001	  3.29524E-001	  3.31581E-001	  3.47844E-001
  1.75000E-004	  3.31925E-001	  3.32453E-001	  3.25974E-001	  3.41144E-001
  1.87500E-004	  3.29933E-001	  3.27053E-001	  3.29420E-001	  3.40876E-001
  2.00000E-004	  3.33005E-001	  3.29824E-001	  3.31533E-001	  3.39705E-001
  2.25000E-004	  3.30308E-001	  3.28741E-001	  3.29393E-001	  3.43805E-001
  2.50000E-004	  3.30376E-001	  3.29546E-001	  3.30774E-001	  3.46804E-001
  2.75000E-004	  3.28125E-001	  3.29132E-001	  3.30220E-001	  3.39463E-001
  3.00000E-004	  3.30150E-001	  3.28370E-001	  3.27082E-001	  3.39060E-001
  3.25000E-004	  3.29875E-001	  3.26770E-001	  3.30548E-001	  3.38137E-001
  3.50000E-004	  3.29677E-001	  3.30765E-001	  3.30247E-001	  3.38817E-001
  3.75000E-004	  3.30153E-001	  3.29535E-001	  3.30029E-001	  3.44048E-001
  4.00000E-004	  3.28489E-001	  3.29622E-001	  3.27919E-001	  3.39584E-001
  4.50000E-004	  3.29839E-001	  3.30537E-001	  3.30846E-001	  3.40618E-001
  5.00000E-004	  3.30055E-001	  3.30308E-001	  3.33956E-001	  3.39688E-001
  5.50000E-004	  3.29108E-001	  3.30123E-001	  3.31044E-001	  3.39929E-001
  6.00000E-004	  3.30184E-001	  3.28204E-001	  3.34719E-001	  3.34722E-001
  6.50000E-004	  3.26627E-001	  3.26054E-001	  3.26053E-001	  3.39207E-001
  7.00000E-004	  3.27946E-001	  3.27766E-001	  3.32394E-001	  3.37417E-001
  7.50000E-004	  3.28259E-001	  3.28199E-001	  3.31926E-001	  3.33547E-001
  8.00000E-004	  3.26275E-001	  3.25775E-001	  3.33389E-001	  3.36442E-001
  9.00000E-004	  3.26217E-001	  3.26305E-001	  3.30167E-001	  3.35126E-001
  1.00000E-003	  3.24802E-001	  3.24088E-001	  3.26723E-001	  3.33587E-001
  1.10000E-003	  3.25386E-001	  3.25917E-001	  3.28282E-001	  3.35438E-001
  1.20000E-003	  3.22641E-001	  3.23425E-001	  3.29176E-001	  3.33895E-001
  1.30000E-003	  3.21777E-001	  3.22537E-001	  3.25978E-001	  3.30111E-001
  1.40000E-003	  3.20867E-001	  3.20310E-001	  3.24678E-001	  3.32222E-001
  1.50000E-003	  3.21696E-001	  3.20912E-001	  3.24267E-001	  3.30672E-001
  1.60000E-003	  3.21798E-001	  3.22143E-001	  3.24187E-001	  3.27882E-001
  1.80000E-003	  3.19827E-001	  3.19451E-001	  3.21813E-001	  3.27665E-001
  2.00000E-003	  3.18348E-001	  3.18196E-001	  3.20376E-001	  3.26290E-001
  2.20000E-003	  3.17758E-001	  3.18033E-001	  3.20411E-001	  3.24497E-001
  2.40000E-003	  3.15667E-001	  3.15563E-001	  3.19411E-001	  3.24829E-001
  2.60000E-003	  3.15245E-001	  3.15199E-001	  3.15613E-001	  3.22337E-001
  2.80000E-003	  3.13646E-001	  3.14551E-001	  3.15801E-001	  3.20747E-001
  3.00000E-003	  3.13219E-001	  3.14354E-001	  3.16690E-001	  3.19311E-001
  3.20000E-003	  3.11765E-001	  3.11798E-001	  3.15053E-001	  3.19248E-001
  3.60000E-003	  3.08386E-001	  3.08845E-001	  3.12218E-001	  3.15786E-001
  4.00000E-003	  3.06418E-001	  3.06320E-001	  3.09209E-001	  3.12946E-001
  4.40000E-003	  3.02662E-001	  3.02566E-001	  3.08308E-001	  3.11289E-001
  4.80000E-003	  3.00817E-001	  2.99903E-001	  3.04933E-001	  3.08242E-001
  5.20000E-003	  2.99010E-001	  2.98711E-001	  3.02391E-001	  3.06814E-001
  5.60000E-003	  2.96274E-001	  2.97234E-001	  2.99185E-001	  3.02892E-001
  6.00000E-003	  2.93662E-001	  2.93234E-001	  2.96647E-001	  3.01123E-001
  6.40000E-003	  2.92381E-001	  2.92233E-001	  2.95222E-001	  2.98284E-001
  7.20000E-003	  2.87097E-001	  2.87309E-001	  2.90012E-001	  2.94189E-001
  8.00000E-003	  2.82800E-001	  2.82894E-001	  2.85564E-001	  2.89220E-001
  8.80000E-003	  2.77471E-001	  2.77150E-001	  2.80943E-001	  2.84518E-001
  9.60000E-003	  2.73004E-001	  2.73464E-001	  2.76494E-001	  2.79553E-001
  1.04000E-002	  2.68621E-001	  2.69127E-001	  2.71092E-001	  2.75146E-001
  1.12000E-002	  2.64613E-001	  2.65495E-001	  2.67389E-001	  2.70820E-001
  1.20000E-002	  2.60843E-001	  2.61156E-001	  2.62865E-001	  2.66045E-001
  1.28000E-002	  2.56470E-001	  2.56885E-001	  2.58439E-001	  2.62419E-001
  1.44000E-002	  2.48114E-001	  2.48564E-001	  2.51495E-001	  2.54023E-001
  1.60000E-002	  2.40385E-001	  2.40463E-001	  2.43393E-001	  2.46282E-001
  1.76000E-002	  2.32793E-001	  2.32587E-001	  2.35660E-001	  2.38173E-001
  1.92000E-002	  2.25489E-001	  2.25512E-001	  2.28574E-001	  2.30891E-001
  2.08000E-002	  2.18317E-001	  2.18489E-001	  2.21533E-001	  2.24181E-001
  2.24000E-002	  2.11187E-001	  2.11429E-001	  2.14066E-001	  2.16167E-001
  2.40000E-002	  2.04718E-001	  2.04829E-001	  2.07253E-001	  2.09336E-001
  2.56000E-002	  1.98290E-001	  1.98720E-001	  2.01004E-001	  2.03108E-001
  2.88000E-002	  1.86326E-001	  1.86499E-001	  1.87826E-001	  1.90623E-001
  3.20000E-002	  1.74619E-001	  1.74848E-001	  1.76247E-001	  1.79099E-001
  3.52000E-002	  1.63756E-001	  1.63772E-001	  1.65328E-001	  1.67810E-001
  3.84000E-002	  1.53499E-001	  1.53402E-001	  1.55562E-001	  1.57468E-001
  4.16000E-002	  1.44469E-001	  1.44661E-001	  1.46046E-001	  1.47812E-001
  4.48000E-002	  1.35675E-001	  1.35816E-001	  1.37022E-001	  1.38872E-001
  4.80000E-002	  1.27297E-001	  1.27197E-001	  1.28428E-001	  1.30171E-001
  5.12000E-002	  1.19491E-001	  1.19544E-001	  1.20705E-001	  1.22494E-001
  5.76000E-002	  1.05213E-001	  1.05317E-001	  1.06285E-001	  1.08092E-001
  6.40000E-002	  9.30422E-002	  9.31449E-002	  9.35960E-002	  9.51676E-002
  7.04000E-002	  8.20320E-002	  8.19873E-002	  8.27447E-002	  8.44079E-002
  7.68000E-002	  7.24861E-002	  7.23020E-002	  7.31118E-002	  7.44493E-002
  8.32000E-002	  6.40768E-002	  6.38729E-002	  6.43368E-002	  6.57199E-002
  8.96000E-002	  5.65305E-002	  5.62446E-002	  5.70999E-002	  5.80963E-002
  9.60000E-002	  4.98450E-002	  4.98666E-002	  5.01497E-002	  5.13125E-002
  1.02400E-001	  4.43248E-002	  4.42832E-002	  4.46741E-002	  4.56229E-002
  1.15200E-001	  3.47788E-002	  3.47320E-002	  3.49215E-002	  3.55993E-002
  1.28000E-001	  2.72472E-002	  2.71812E-002	  2.75851E-002	  2.79144E-002
  1.40800E-001	  2.12189E-002	  2.13654E-002	  2.18793E-002	  2.18233E-002
  1.53600E-001	  1.67794E-002	  1.66624E-002	  1.68204E-002	  1.70907E-002
  1.66400E-001	  1.30750E-002	  1.31386E-002	  1.31990E-002	  1.35190E-002
  1.79200E-001	  1.02998E-002	  1.02922E-002	  1.04813E-002	  1.05342E-002
  1.92000E-001	  8.08563E-003	  8.29565E-003	  8.01632E-003	  8.05800E-003
  2.04800E-001	  6.44619E-003	  6.66042E-003	  6.18903E-003	  6.48433E-003
  2.30400E-001	  3.79311E-003	  3.85596E-003	  3.91745E-003	  3.92740E-003
  2.56000E-001	  2.48247E-003	  2.56141E-003	  2.24709E-003	  2.42427E-003
  2.81600E-001	  1.42797E-003	  1.45514E-003	  1.63798E-003	  1.44363E-003
  3.07200E-001	  5.95104E-004	  6.94560E-004	  7.86430E-004	  5.85962E-004
  3.32800E-001	  3.22720E-004	  4.97824E-004	  6.17932E-004	  3.08863E-004
  3.58400E-001	  7.94928E-005	  2.04284E-005	  3.57760E-004	  6.66325E-005
  3.84000E-001	  4.83659E-005	 -4.16292E-005	  1.74086E-004	 -5.84839E-005
  4.09600E-001	  1.02318E-004	  2.08568E-006	  1.62919E-004	  1.58055E-005
  4.60800E-001	  3.62641E-004	  3.49286E-004	  3.42476E-004	  2.98256E-004
  5.12000E-001	  1.77641E-004	  2.16229E-004	  1.33711E-004	  1.19797E-004
  5.63200E-001	 -7.83806E-005	 -1.68956E-004	 -8.93758E-005	 -7.09261E-005
  6.14400E-001	  4.88157E-005	  1.22607E-004	 -1.03905E-004	  1.68191E-004
  6.65600E-001	  4.59341E-005	  1.38641E-004	 -1.93983E-004	  2.87560E-004
  7.16800E-001	 -1.06228E-004	 -1.25706E-004	 -3.18845E-004	  5.01499E-005
  7.68000E-001	  2.13499E-004	  3.23661E-004	 -5.30630E-005	  2.97818E-004
  8.19200E-001	  2.28358E-004	  2.89178E-004	 -1.40501E-005	  4.24292E-004
  9.21600E-001	 -4.38966E-005	 -6.21088E-005	 -1.91411E-004	  8.62256E-005
  1.02400E+000	 -1.24452E-004	 -7.25098E-005	 -2.18930E-004	  6.82361E-005
  1.12640E+000	  1.31800E-004	  3.47074E-005	  2.30206E-004	  1.65900E-004
  1.22880E+000	 -8.48077E-005	 -1.86861E-004	 -5.33370E-005	  5.87413E-005
  1.33120E+000	 -1.80998E-004	 -1.99104E-004	 -4.36358E-004	 -4.06227E-005
  1.43360E+000	  5.25033E-005	  9.93114E-005	 -2.61826E-004	  2.17526E-004
  1.53600E+000	  1.53867E-004	  2.65780E-004	  1.49193E-004	  2.08062E-004
  1.63840E+000	 -2.83119E-004	 -2.62069E-004	 -3.51616E-004	 -2.52496E-004
  1.84320E+000	  7.04518E-005	  1.00564E-004	  4.99949E-005	  2.35133E-005
  2.04800E+000	  1.32923E-004	  8.85545E-005	  1.77339E-004	  9.26726E-005
  2.25280E+000	  1.07788E-004	  1.71465E-005	  2.85959E-005	  2.75604E-004
  2.45760E+000	 -1.64688E-004	 -8.42196E-005	 -1.16605E-004	 -2.71051E-004
  2.66240E+000	 -2.29021E-004	 -4.54988E-005	 -2.12128E-004	 -2.73103E-004
  2.86720E+000	 -2.53812E-004	 -2.23644E-004	 -2.72657E-004	 -2.20582E-004
  3.07200E+000	 -4.32894E-004	 -4.33755E-004	 -4.54228E-004	 -4.46341E-004
  3.27680E+000	 -1.87823E-004	 -1.52364E-004	 -1.22688E-004	 -2.22337E-004
  3.68640E+000	 -1.08653E-004	 -2.14442E-004	 -9.57547E-005	 -2.15080E-004
  4.09600E+000	  2.74090E-005	  7.81018E-005	  4.33311E-005	  5.81274E-005
  4.50560E+000	 -2.21624E-005	 -9.14744E-005	 -1.51958E-005	  1.07628E-005
  4.91520E+000	 -7.05687E-006	  7.67419E-005	  7.24619E-005	 -1.74017E-004
  5.32480E+000	  6.61220E-005	  7.08577E-005	 -3.18641E-005	  1.06774E-004
  5.73440E+000	  3.03494E-004	  3.14145E-004	  2.90716E-004	  3.15482E-004
  6.14400E+000	  2.53489E-004	  2.90866E-004	  2.43343E-004	  2.37744E-004
  6.55360E+000	 -9.53625E-006	 -7.18709E-005	  3.44354E-005	 -4.85202E-005
  7.37280E+000	 -1.30592E-004	 -1.36963E-004	 -1.71950E-004	 -9.09492E-005
  8.19200E+000	  2.52711E-006	 -5.28046E-005	 -6.13095E-006	 -1.23453E-005
  9.01120E+000	 -9.39935E-006	  1.60249E-005	  2.64547E-005	 -4.41251E-005
  9.83040E+000	 -1.45131E-004	 -1.75799E-004	 -9.18581E-005	 -1.77910E-004
  1.06496E+001	 -1.60247E-004	 -1.06377E-004	 -2.51064E-004	 -3.25875E-005
  1.14688E+001	  9.08132E-006	  2.09342E-005	  4.35202E-005	 -5.45836E-005
  1.22880E+001	  9.70273E-005	  7.92083E-005	  7.17356E-005	  1.32182E-004
  1.31072E+001	  1.68098E-004	  1.74736E-004	  2.04196E-004	  1.64746E-004
  1.47456E+001	  1.75022E-004	  1.57947E-004	  1.52719E-004	  1.76366E-004
  1.63840E+001	 -1.81553E-004	 -1.88268E-004	 -1.65486E-004	 -2.03182E-004
  1.80224E+001	 -3.78376E-005	 -9.45545E-005	 -3.69188E-005	 -8.64345E-006
  1.96608E+001	 -6.72943E-005	 -1.17071E-004	 -8.09845E-005	 -4.30564E-005
  2.12992E+001	  6.93096E-005	  1.05149E-004	  1.09619E-004	  4.86292E-005
  2.29376E+001	 -1.65989E-005	  1.87013E-006	 -4.47553E-006	 -1.48438E-005
  2.45760E+001	 -3.58251E-005	  1.97022E-006	 -1.09168E-005	 -6.63878E-005
  2.62144E+001	  9.16323E-005	  7.16454E-005	  6.59311E-005	  9.86919E-005
  2.94912E+001	  1.50207E-004	  1.98112E-004	  1.23096E-004	  1.82277E-004
  3.27680E+001	  4.21599E-005	  5.98251E-005	  3.96612E-005	  2.47815E-005
  3.60448E+001	  6.72793E-005	  6.39844E-005	  7.18188E-005	  6.54454E-005
  3.93216E+001	 -8.92053E-005	 -5.85303E-005	 -1.01436E-004	 -1.06254E-004
  4.25984E+001	 -1.02747E-005	 -5.90949E-005	 -7.65437E-006	 -3.57405E-006
  4.58752E+001	 -4.35996E-006	 -3.42700E-005	 -3.36582E-005	  4.83775E-005
  4.91520E+001	 -1.29028E-004	 -1.31810E-004	 -8.66371E-005	 -1.60217E-004
  5.24288E+001	 -4.50019E-005	 -5.22240E-005	 -4.17448E-005	 -4.21358E-005
  5.89824E+001	 -2.77012E-005	 -1.46408E-005	 -3.90395E-005	 -1.15697E-005
  6.55360E+001	 -5.05778E-006	 -4.04257E-005	 -1.21964E-005	 -5.52542E-006
  7.20896E+001	  2.42357E-005	  3.81020E-005	  3.49216E-005	  3.03215E-005
  7.86432E+001	 -2.82934E-005	 -5.09042E-005	 -1.93583E-005	 -2.05488E-005
  8.51968E+001	 -5.64905E-005	 -4.45487E-005	 -5.04657E-005	 -5.60213E-005
  9.17504E+001	  6.53039E-005	  7.73281E-005	  8.20091E-005	  4.50143E-005
  9.83040E+001	  6.21622E-005	  8.11813E-005	  5.26409E-005	  6.51122E-005
  1.04858E+002	 -1.70501E-005	 -1.22145E-005	 -1.44966E-005	 -2.16924E-005
  1.17965E+002	 -3.19472E-005	 -4.00403E-005	 -3.12488E-005	 -3.30545E-005
  1.31072E+002	  5.09867E-005	  6.03056E-005	  4.30068E-005	  4.80107E-005
  1.44179E+002	  2.19467E-005	  3.41641E-005	  2.64732E-005	  1.62956E-005
  1.57286E+002	  4.33520E-005	  4.17426E-005	  4.79120E-005	  3.11354E-005
  1.70394E+002	 -6.42591E-005	 -6.66229E-005	 -7.88922E-005	 -5.53276E-005
  1.83501E+002	  3.54733E-005	  2.95141E-005	  3.15865E-005	  3.83961E-005
  1.96608E+002	 -5.88638E-005	 -5.11596E-005	 -5.91294E-005	 -6.32058E-005
  2.09715E+002	 -2.16219E-005	 -2.33757E-005	 -2.99169E-005	 -2.27338E-005
  2.35930E+002	 -2.46127E-005	 -2.89094E-005	 -3.40877E-005	 -1.15745E-005
  2.62144E+002	 -1.07500E-005	 -2.35292E-005	 -1.21198E-005	 -5.34405E-006
  2.88358E+002	 -2.88459E-005	 -4.07004E-005	 -2.49986E-005	 -3.74988E-005
  3.14573E+002	  9.45442E-006	  5.82971E-006	  2.10751E-005	 -1.17521E-005
  3.40787E+002	 -2.07923E-005	 -2.46112E-005	 -9.82023E-007	 -3.45126E-005
  3.67002E+002	 -1.79479E-005	 -1.04042E-005	 -4.04175E-006	 -3.22811E-005
  3.93216E+002	 -6.08473E-006	  6.53315E-006	  8.28970E-006	 -1.51043E-005
  4.19430E+002	 -3.76894E-006	 -1.13543E-005	 -4.09497E-006	 -2.79219E-006
  4.71859E+002	  1.35442E-005	  7.41974E-006	  5.58976E-006	  2.29879E-005
  5.24288E+002	  2.86181E-005	  1.66581E-005	  3.00627E-005	  2.63755E-005
  5.76717E+002	 -4.42262E-006	 -5.68937E-007	  5.34917E-006	 -1.02169E-005
  6.29146E+002	  1.34106E-005	  2.29350E-005	  1.96236E-005	  7.96240E-006
  6.81574E+002	 -1.60862E-005	 -8.32410E-006	 -7.51136E-006	 -2.50057E-005
  7.34003E+002	  3.39389E-005	  3.16830E-005	  3.12784E-005	  3.89701E-005
  7.86432E+002	  6.73069E-006	 -1.72522E-006	 -9.23335E-006	  1.72971E-005
  8.38861E+002	  1.73951E-005	  1.48540E-005	  1.47556E-005	  1.95853E-005
  9.43718E+002	 -3.85996E-006	 -5.68388E-006	 -8.96475E-006	  2.61667E-006
  1.04858E+003	 -1.65064E-005	 -2.00234E-005	 -1.17421E-005	 -1.70454E-005
  1.15343E+003	 -4.51961E-006	 -8.58021E-007	  2.91557E-006	 -1.03978E-005
  1.25829E+003	 -1.47802E-006	 -3.04996E-006	 -1.10946E-006	 -2.38968E-006
  1.36315E+003	 -1.16417E-005	 -1.23379E-005	 -8.47969E-006	 -1.54068E-005
  1.46801E+003	  1.30765E-005	  7.40642E-006	  1.57682E-005	  3.05395E-006
  1.57286E+003	 -3.77843E-006	 -9.12033E-006	 -7.27270E-006	  4.71632E-007
  1.67772E+003	 -1.28892E-005	 -1.84092E-005	 -1.08932E-005	 -9.51074E-006
  1.88744E+003	  7.54634E-006	  1.18354E-005	  1.39886E-005	  1.93322E-006
  2.09715E+003	  4.24807E-006	  7.45131E-006	 -3.60599E-007	  7.14570E-006
  2.30687E+003	  1.70492E-006	 -4.38845E-006	  5.29844E-006	  8.42140E-007
  2.51658E+003	  1.60771E-006	  3.73810E-007	  5.76141E-006	 -1.75242E-006
  2.72630E+003	 -4.04236E-006	 -8.82373E-007	 -8.77654E-006	  1.81383E-006
  2.93601E+003	  7.58124E-006	  7.44312E-006	  1.03585E-005	  5.50808E-006
  3.14573E+003	  8.34751E-006	  1.08640E-005	  4.22927E-006	  1.07102E-005
  3.35544E+003	 -8.27009E-006	 -8.67113E-006	 -3.67720E-006	 -1.29252E-005
  3.77487E+003	  3.21233E-007	  1.07625E-006	 -5.66234E-007	  2.95338E-006
  4.19430E+003	 -1.29808E-006	 -1.16069E-006	  2.28780E-006	 -5.09145E-006
  4.61373E+003	 -5.04255E-006	 -6.24320E-006	 -4.89819E-006	 -7.79662E-006
  5.03317E+003	  1.69739E-006	  1.95519E-006	  3.49224E-006	 -1.41013E-006
  5.45260E+003	 -5.61407E-006	 -5.30062E-006	 -9.66870E-006	 -3.55363E-006
  5.87203E+003	 -6.68775E-006	 -2.38247E-006	 -6.92995E-006	 -6.37690E-006
  6.29146E+003	 -6.95470E-006	 -6.30975E-006	 -6.58147E-006	 -6.80406E-006
  6.71089E+003	 -1.49783E-006	 -1.20262E-006	 -3.16092E-006	  2.90131E-007
  7.54975E+003	 -8.29528E-006	 -9.08450E-006	 -1.06229E-005	 -6.30813E-006
  8.38861E+003	 -7.03977E-007	 -1.51413E-006	 -3.76248E-006	  1.48521E-007
  9.22747E+003	 -5.03117E-007	  1.73015E-006	 -2.43107E-006	  1.67884E-006
  1.00663E+004	 -7.23578E-006	 -9.24099E-006	 -6.74889E-006	 -6.99625E-006
  1.09052E+004	  8.21177E-006	  3.49438E-006	  5.60861E-006	  1.00243E-005
  1.17441E+004	  1.41319E-006	  7.26851E-007	 -1.63583E-006	  2.09171E-006

"Count Rate"
       0.23438	     316.07092	     397.49808	     316.07092	     397.49808
       0.46875	     309.06989	     389.53284	     309.06989	     389.53284
       0.70313	     311.79605	     396.64053	     311.79605	     396.64053
       0.93750	     309.64157	     388.77341	     309.64157	     388.77341
       1.17188	     312.73038	     392.07556	     312.73038	     392.07556
       1.40625	     306.11331	     384.32791	     306.11331	     384.32791
       1.64063	     306.37784	     384.17859	     306.37784	     384.17859
       1.87500	     308.38300	     388.65823	     308.38300	     388.65823
       2.10938	     312.47440	     395.80432	     312.47440	     395.80432
       2.34375	     318.08035	     396.63626	     318.08035	     396.63626
       2.57813	     307.81558	     389.63522	     307.81558	     389.63522
       2.81250	     317.87985	     399.69095	     317.87985	     399.69095
       3.04688	     313.43433	     393.05255	     313.43433	     393.05255
       3.28125	     305.11072	     386.11551	     305.11072	     386.11551
       3.51563	     312.93091	     394.82733	     312.93091	     394.82733
       3.75000	     303.56631	     384.62656	     303.56631	     384.62656
       3.98438	     314.57346	     393.09521	     314.57346	     393.09521
       4.21875	     309.97006	     391.16257	     309.97006	     391.16257
       4.45313	     310.11938	     389.57550	     310.11938	     389.57550
