ALV-7004 or ALV-7004/FAST Data
Date :	"3/28/2010"
Time :	"12:23:28 PM"
Samplename : 	"BSA 15 g/l in 8.3 mM YCl3"
SampMemo(0) : 	""
SampMemo(1) : 	""
SampMemo(2) : 	""
SampMemo(3) : 	""
SampMemo(4) : 	""
SampMemo(5) : 	""
SampMemo(6) : 	""
SampMemo(7) : 	""
SampMemo(8) : 	""
SampMemo(9) : 	""
Temperature [K] :	     295.62603
Viscosity [cp]  :	       0.94388
Refractive Index:	       1.33200
Wavelength [nm] :	     632.80000
Angle [°]       :	      70.00000
Duration [s]    :	        60
Runs            :	         1
Mode            :	"C-CH0/1+1/0"
MeanCR0 [kHz]   :	     313.09322
MeanCR1 [kHz]   :	     393.09306
MeanCR2 [kHz]   :	       0.00000
MeanCR3 [kHz]   :	       0.00000

"Correlation"
  3.12500E-006	  6.46272E-001	  6.45443E-001	 -2.00000E+000	 -2.00000E+000
  6.25000E-006	  6.38929E-001	  6.32215E-001	 -2.00000E+000	 -2.00000E+000
  9.37500E-006	  6.53048E-001	  6.50452E-001	 -2.00000E+000	 -2.00000E+000
  1.25000E-005	  6.32230E-001	  6.24576E-001	 -2.00000E+000	 -2.00000E+000
  1.56250E-005	  6.72649E-001	  6.66125E-001	 -2.00000E+000	 -2.00000E+000
  1.87500E-005	  6.72654E-001	  6.82613E-001	 -2.00000E+000	 -2.00000E+000
  2.18750E-005	  6.56131E-001	  6.73725E-001	 -2.00000E+000	 -2.00000E+000
  2.50000E-005	  6.74983E-001	  6.85315E-001	 -2.00000E+000	 -2.00000E+000
  2.81250E-005	  6.67913E-001	  6.81120E-001	 -2.00000E+000	 -2.00000E+000
  3.12500E-005	  6.75716E-001	  6.61748E-001	 -2.00000E+000	 -2.00000E+000
  3.43750E-005	  6.36019E-001	  6.28752E-001	 -2.00000E+000	 -1.99993E+000
  3.75000E-005	  6.65578E-001	  6.62415E-001	 -2.00000E+000	 -2.00000E+000
  4.06250E-005	  6.65965E-001	  6.65261E-001	 -2.00000E+000	  8.51762E-001
  4.37500E-005	  6.69081E-001	  6.77914E-001	 -2.00000E+000	  1.03557E+000
  4.68750E-005	  6.75056E-001	  6.60555E-001	 -2.00000E+000	 -6.13148E-001
  5.00000E-005	  6.73693E-001	  6.74347E-001	 -2.00000E+000	  1.78023E+000
  5.62500E-005	  6.65137E-001	  6.66741E-001	 -2.00000E+000	  8.56257E-001
  6.25000E-005	  6.73321E-001	  6.70544E-001	 -2.00000E+000	  8.93607E-001
  6.87500E-005	  6.55780E-001	  6.52907E-001	 -1.95384E+000	  1.01093E+000
  7.50000E-005	  6.55431E-001	  6.50117E-001	  1.59304E+000	  6.93850E-001
  8.12500E-005	  6.80102E-001	  6.64746E-001	  9.66346E-001	  7.39831E-001
  8.75000E-005	  6.65293E-001	  6.66784E-001	  9.13803E-001	  7.16470E-001
  9.37500E-005	  6.61790E-001	  6.57694E-001	  8.51638E-001	  7.32879E-001
  1.00000E-004	  6.54032E-001	  6.55027E-001	  7.67249E-001	  6.89490E-001
  1.12500E-004	  6.64368E-001	  6.63222E-001	  7.84339E-001	  7.08594E-001
  1.25000E-004	  6.63228E-001	  6.62958E-001	  7.26870E-001	  7.10610E-001
  1.37500E-004	  6.62882E-001	  6.62219E-001	  6.61157E-001	  7.00633E-001
  1.50000E-004	  6.66373E-001	  6.67994E-001	  6.67645E-001	  7.02808E-001
  1.62500E-004	  6.52485E-001	  6.54223E-001	  6.61113E-001	  6.98727E-001
  1.75000E-004	  6.61088E-001	  6.56967E-001	  6.44132E-001	  6.88048E-001
  1.87500E-004	  6.63139E-001	  6.59641E-001	  6.54476E-001	  6.80054E-001
  2.00000E-004	  6.60411E-001	  6.55400E-001	  6.54439E-001	  6.86095E-001
  2.25000E-004	  6.60482E-001	  6.58419E-001	  6.55762E-001	  6.88015E-001
  2.50000E-004	  6.59748E-001	  6.57555E-001	  6.66055E-001	  6.86789E-001
  2.75000E-004	  6.58722E-001	  6.58757E-001	  6.62114E-001	  6.81727E-001
  3.00000E-004	  6.60763E-001	  6.57702E-001	  6.55057E-001	  6.84034E-001
  3.25000E-004	  6.61469E-001	  6.57575E-001	  6.59312E-001	  6.76305E-001
  3.50000E-004	  6.59680E-001	  6.59105E-001	  6.63910E-001	  6.79333E-001
  3.75000E-004	  6.60368E-001	  6.59923E-001	  6.60446E-001	  6.81590E-001
  4.00000E-004	  6.59049E-001	  6.61891E-001	  6.57537E-001	  6.80217E-001
  4.50000E-004	  6.58892E-001	  6.61586E-001	  6.63416E-001	  6.78615E-001
  5.00000E-004	  6.60147E-001	  6.60382E-001	  6.60737E-001	  6.81147E-001
  5.50000E-004	  6.58557E-001	  6.62500E-001	  6.61039E-001	  6.76275E-001
  6.00000E-004	  6.57489E-001	  6.54157E-001	  6.66272E-001	  6.74696E-001
  6.50000E-004	  6.52969E-001	  6.50731E-001	  6.54613E-001	  6.74805E-001
  7.00000E-004	  6.56275E-001	  6.56518E-001	  6.61175E-001	  6.75881E-001
  7.50000E-004	  6.53083E-001	  6.52020E-001	  6.61129E-001	  6.70664E-001
  8.00000E-004	  6.52463E-001	  6.50559E-001	  6.63060E-001	  6.73128E-001
  9.00000E-004	  6.53269E-001	  6.54896E-001	  6.60331E-001	  6.70234E-001
  1.00000E-003	  6.48605E-001	  6.46100E-001	  6.55967E-001	  6.65602E-001
  1.10000E-003	  6.49752E-001	  6.49989E-001	  6.53511E-001	  6.69405E-001
  1.20000E-003	  6.46540E-001	  6.45364E-001	  6.57531E-001	  6.65494E-001
  1.30000E-003	  6.45706E-001	  6.46899E-001	  6.50932E-001	  6.61925E-001
  1.40000E-003	  6.42426E-001	  6.41457E-001	  6.49648E-001	  6.63167E-001
  1.50000E-003	  6.42908E-001	  6.41156E-001	  6.46710E-001	  6.61660E-001
  1.60000E-003	  6.44196E-001	  6.44628E-001	  6.46344E-001	  6.56937E-001
  1.80000E-003	  6.40053E-001	  6.39593E-001	  6.45396E-001	  6.55879E-001
  2.00000E-003	  6.37668E-001	  6.38386E-001	  6.41560E-001	  6.53277E-001
  2.20000E-003	  6.36008E-001	  6.35252E-001	  6.38223E-001	  6.49575E-001
  2.40000E-003	  6.32541E-001	  6.32337E-001	  6.37550E-001	  6.48414E-001
  2.60000E-003	  6.29900E-001	  6.29358E-001	  6.33257E-001	  6.44787E-001
  2.80000E-003	  6.28461E-001	  6.29701E-001	  6.31525E-001	  6.41671E-001
  3.00000E-003	  6.24692E-001	  6.26536E-001	  6.32883E-001	  6.38428E-001
  3.20000E-003	  6.23553E-001	  6.23285E-001	  6.30122E-001	  6.38011E-001
  3.60000E-003	  6.16798E-001	  6.17272E-001	  6.24628E-001	  6.31911E-001
  4.00000E-003	  6.12238E-001	  6.11271E-001	  6.19143E-001	  6.27319E-001
  4.40000E-003	  6.07107E-001	  6.07292E-001	  6.16248E-001	  6.23054E-001
  4.80000E-003	  6.01975E-001	  6.00893E-001	  6.09284E-001	  6.16180E-001
  5.20000E-003	  5.97853E-001	  5.96841E-001	  6.04874E-001	  6.12072E-001
  5.60000E-003	  5.92919E-001	  5.94009E-001	  5.98033E-001	  6.05363E-001
  6.00000E-003	  5.88289E-001	  5.87998E-001	  5.94907E-001	  6.02015E-001
  6.40000E-003	  5.84232E-001	  5.84117E-001	  5.90381E-001	  5.97220E-001
  7.20000E-003	  5.74036E-001	  5.74135E-001	  5.80381E-001	  5.88315E-001
  8.00000E-003	  5.65791E-001	  5.65664E-001	  5.71460E-001	  5.79152E-001
  8.80000E-003	  5.56242E-001	  5.55993E-001	  5.63261E-001	  5.69098E-001
  9.60000E-003	  5.46515E-001	  5.47093E-001	  5.52491E-001	  5.59426E-001
  1.04000E-002	  5.38244E-001	  5.38744E-001	  5.43764E-001	  5.50768E-001
  1.12000E-002	  5.29663E-001	  5.30307E-001	  5.34934E-001	  5.42189E-001
  1.20000E-002	  5.21704E-001	  5.21767E-001	  5.25631E-001	  5.32831E-001
  1.28000E-002	  5.12871E-001	  5.12833E-001	  5.17516E-001	  5.24926E-001
  1.44000E-002	  4.96984E-001	  4.97617E-001	  5.02636E-001	  5.08497E-001
  1.60000E-002	  4.81145E-001	  4.81022E-001	  4.87237E-001	  4.93140E-001
  1.76000E-002	  4.65581E-001	  4.65520E-001	  4.72078E-001	  4.76674E-001
  1.92000E-002	  4.51548E-001	  4.51596E-001	  4.56461E-001	  4.62007E-001
  2.08000E-002	  4.36560E-001	  4.36235E-001	  4.42025E-001	  4.48123E-001
  2.24000E-002	  4.22910E-001	  4.22569E-001	  4.28744E-001	  4.32713E-001
  2.40000E-002	  4.09955E-001	  4.10067E-001	  4.14932E-001	  4.18843E-001
  2.56000E-002	  3.97264E-001	  3.97740E-001	  4.01864E-001	  4.06613E-001
  2.88000E-002	  3.72991E-001	  3.73434E-001	  3.76411E-001	  3.81304E-001
  3.20000E-002	  3.49518E-001	  3.49889E-001	  3.52938E-001	  3.58567E-001
  3.52000E-002	  3.28026E-001	  3.28361E-001	  3.31029E-001	  3.36142E-001
  3.84000E-002	  3.07525E-001	  3.07301E-001	  3.11638E-001	  3.15409E-001
  4.16000E-002	  2.89058E-001	  2.88902E-001	  2.92118E-001	  2.95783E-001
  4.48000E-002	  2.71639E-001	  2.71715E-001	  2.73910E-001	  2.77895E-001
  4.80000E-002	  2.54712E-001	  2.54706E-001	  2.57025E-001	  2.60817E-001
  5.12000E-002	  2.39391E-001	  2.39555E-001	  2.41424E-001	  2.44981E-001
  5.76000E-002	  2.10986E-001	  2.11277E-001	  2.13043E-001	  2.16320E-001
  6.40000E-002	  1.86089E-001	  1.86035E-001	  1.87477E-001	  1.90512E-001
  7.04000E-002	  1.64272E-001	  1.64234E-001	  1.65725E-001	  1.68405E-001
  7.68000E-002	  1.44796E-001	  1.44829E-001	  1.46350E-001	  1.48690E-001
  8.32000E-002	  1.27949E-001	  1.27788E-001	  1.28760E-001	  1.31196E-001
  8.96000E-002	  1.12986E-001	  1.12850E-001	  1.13829E-001	  1.16094E-001
  9.60000E-002	  9.97716E-002	  9.99898E-002	  1.00327E-001	  1.02558E-001
  1.02400E-001	  8.87508E-002	  8.89415E-002	  8.94249E-002	  9.12028E-002
  1.15200E-001	  6.95110E-002	  6.97303E-002	  6.98045E-002	  7.11422E-002
  1.28000E-001	  5.43669E-002	  5.44137E-002	  5.49731E-002	  5.59182E-002
  1.40800E-001	  4.26327E-002	  4.30815E-002	  4.32925E-002	  4.35885E-002
  1.53600E-001	  3.36296E-002	  3.37317E-002	  3.36587E-002	  3.42314E-002
  1.66400E-001	  2.64787E-002	  2.68018E-002	  2.68130E-002	  2.74023E-002
  1.79200E-001	  2.11414E-002	  2.13103E-002	  2.13282E-002	  2.16617E-002
  1.92000E-001	  1.64989E-002	  1.68952E-002	  1.66146E-002	  1.67360E-002
  2.04800E-001	  1.31453E-002	  1.35194E-002	  1.29297E-002	  1.32671E-002
  2.30400E-001	  7.86294E-003	  7.97566E-003	  8.06338E-003	  8.20662E-003
  2.56000E-001	  5.14388E-003	  5.29228E-003	  5.16639E-003	  5.09240E-003
  2.81600E-001	  2.94986E-003	  3.02907E-003	  3.48749E-003	  2.65358E-003
  3.07200E-001	  1.42221E-003	  1.49884E-003	  2.05164E-003	  1.01230E-003
  3.32800E-001	  5.57400E-004	  7.68896E-004	  1.13603E-003	  3.59965E-004
  3.58400E-001	  1.99293E-004	  5.82018E-005	  5.61355E-004	  3.92707E-004
  3.84000E-001	  1.67342E-004	  6.83498E-005	  6.51360E-004	  1.09883E-004
  4.09600E-001	  2.95608E-005	 -7.02468E-005	  3.04338E-004	 -3.77828E-005
  4.60800E-001	  1.40011E-005	  7.31318E-005	 -1.40851E-004	 -1.29045E-004
  5.12000E-001	 -4.07708E-005	  2.00560E-005	 -2.15925E-004	  4.62227E-005
  5.63200E-001	  9.71083E-005	  1.19035E-005	  8.51267E-005	  1.54722E-004
  6.14400E-001	  4.54654E-004	  5.16573E-004	  2.93950E-004	  5.75086E-004
  6.65600E-001	  3.11046E-004	  4.31090E-004	 -1.09345E-004	  8.64116E-004
  7.16800E-001	 -1.74266E-004	 -3.27839E-004	 -5.85176E-004	  2.98789E-004
  7.68000E-001	 -1.27191E-004	  3.54369E-005	 -4.58092E-004	  1.32712E-004
  8.19200E-001	  4.98701E-005	  1.74322E-004	 -1.23285E-004	  1.62500E-004
  9.21600E-001	  3.79894E-005	 -2.67121E-005	 -1.17766E-004	  5.57035E-005
  1.02400E+000	 -3.32040E-004	 -1.07388E-004	 -3.01477E-004	 -2.73522E-004
  1.12640E+000	  7.50300E-006	 -4.39451E-005	  1.38702E-004	  1.09271E-004
  1.22880E+000	  1.16421E-004	 -1.78396E-004	  1.75109E-004	  3.42785E-004
  1.33120E+000	 -1.71371E-004	 -4.76188E-004	 -3.49157E-004	 -7.64526E-005
  1.43360E+000	  2.09692E-004	  6.96493E-005	 -3.02999E-005	  3.02972E-004
  1.53600E+000	  5.45103E-005	  2.13725E-004	 -5.61123E-005	  5.89908E-005
  1.63840E+000	 -2.32369E-004	 -1.34801E-004	 -3.95295E-004	 -1.42352E-004
  1.84320E+000	  8.37141E-005	  5.84040E-005	 -4.22046E-005	  7.39284E-005
  2.04800E+000	 -1.07262E-004	 -1.55959E-004	 -1.60152E-004	 -1.82634E-005
  2.25280E+000	  1.09598E-004	  1.71165E-004	  5.62173E-005	  2.40214E-004
  2.45760E+000	 -1.02447E-004	 -1.96750E-004	 -1.91154E-005	 -1.54486E-004
  2.66240E+000	  9.66259E-005	  2.60356E-004	  1.42511E-004	  1.09671E-005
  2.86720E+000	 -3.01712E-004	 -2.72259E-004	 -2.16074E-004	 -3.35835E-004
  3.07200E+000	 -3.64500E-004	 -2.47677E-004	 -5.79771E-004	 -3.15863E-004
  3.27680E+000	 -1.49077E-004	 -4.96995E-005	 -1.28457E-004	 -1.87420E-004
  3.68640E+000	 -4.29155E-005	 -1.52659E-004	  6.70200E-005	 -2.55983E-004
  4.09600E+000	  5.38093E-005	  1.91939E-004	  1.89589E-004	 -2.98817E-005
  4.50560E+000	 -7.14791E-005	 -1.27658E-004	 -3.69575E-005	 -6.42394E-005
  4.91520E+000	  2.98458E-004	  3.35494E-004	  3.81577E-004	  1.42999E-004
  5.32480E+000	 -8.28011E-007	 -7.17813E-005	  5.16209E-005	 -1.47639E-004
  5.73440E+000	  2.40514E-004	  2.19382E-004	  1.82810E-004	  3.02202E-004
  6.14400E+000	  5.55637E-004	  5.96963E-004	  5.60095E-004	  5.78978E-004
  6.55360E+000	  8.59271E-005	  1.04661E-004	  1.43663E-004	  3.59975E-005
  7.37280E+000	  1.86616E-004	  2.27380E-004	  1.28449E-004	  2.37364E-004
  8.19200E+000	  2.31907E-004	  1.87139E-004	  1.92080E-004	  2.49575E-004
  9.01120E+000	  2.04636E-004	  1.95775E-004	  2.02490E-004	  2.06294E-004
  9.83040E+000	  7.54002E-005	 -8.32326E-007	  1.25444E-004	  9.86621E-005
  1.06496E+001	  6.76915E-005	  1.43343E-004	  2.29482E-005	  1.50680E-004
  1.14688E+001	 -1.03656E-004	 -6.18445E-005	 -9.85220E-005	 -1.74054E-004
  1.22880E+001	  4.32398E-005	  3.09794E-005	 -5.56654E-006	  1.19850E-004
  1.31072E+001	  1.32246E-004	  1.73284E-004	  1.27152E-004	  1.75826E-004
  1.47456E+001	  2.65442E-004	  2.56518E-004	  1.65489E-004	  2.96038E-004
  1.63840E+001	 -2.51984E-004	 -2.04912E-004	 -2.74979E-004	 -2.24725E-004
  1.80224E+001	 -1.17903E-004	 -1.42830E-004	 -1.61651E-004	 -3.35546E-005
  1.96608E+001	  1.69852E-005	 -5.18412E-005	  4.28054E-005	  4.42142E-006
  2.12992E+001	 -2.03944E-004	 -1.82010E-004	 -2.03365E-004	 -1.68821E-004
  2.29376E+001	 -1.43018E-005	 -1.15394E-005	 -8.04786E-005	  6.93533E-005
  2.45760E+001	  9.61523E-005	  1.44062E-004	  1.45462E-004	  7.55655E-005
  2.62144E+001	  2.21369E-004	  2.15003E-004	  1.89115E-004	  2.30006E-004
  2.94912E+001	  1.45478E-004	  2.05383E-004	  1.00959E-004	  1.85339E-004
  3.27680E+001	 -1.19497E-005	  7.09905E-006	  1.17414E-005	 -4.90945E-005
  3.60448E+001	  8.22913E-005	  7.46205E-005	  1.06442E-004	  8.31449E-005
  3.93216E+001	  1.06067E-004	  1.59585E-004	  5.76229E-005	  9.49779E-005
  4.25984E+001	 -7.18994E-005	 -8.92072E-005	 -4.80562E-005	 -8.17847E-005
  4.58752E+001	  6.18175E-005	  3.61719E-005	  6.17287E-005	  9.38924E-005
  4.91520E+001	 -1.58306E-004	 -1.66843E-004	 -1.14971E-004	 -1.79729E-004
  5.24288E+001	 -5.80933E-005	 -5.54704E-005	 -4.59993E-005	 -5.42601E-005
  5.89824E+001	 -1.10750E-005	  2.13840E-005	 -4.17557E-006	 -1.17568E-005
  6.55360E+001	 -2.51359E-005	 -3.24405E-005	 -2.40859E-005	 -2.52840E-005
  7.20896E+001	  5.94024E-005	  7.39465E-005	  9.03742E-005	  4.73957E-005
  7.86432E+001	 -5.10991E-005	 -5.33004E-005	 -4.09811E-005	 -6.01409E-005
  8.51968E+001	 -1.08541E-004	 -1.18999E-004	 -1.48990E-004	 -6.12443E-005
  9.17504E+001	 -1.29875E-005	  3.33751E-005	 -2.52221E-005	 -1.14108E-005
  9.83040E+001	  4.78675E-005	  1.00761E-004	  4.58068E-005	  3.66700E-005
  1.04858E+002	 -1.06117E-004	 -7.83128E-005	 -1.05115E-004	 -1.11429E-004
  1.17965E+002	 -7.13342E-006	 -7.62426E-007	  3.19304E-006	 -2.41639E-005
  1.31072E+002	  1.62124E-005	  4.82814E-005	  1.02894E-005	 -2.02821E-006
  1.44179E+002	 -2.81254E-005	 -3.11637E-005	 -1.35330E-005	 -4.36359E-005
  1.57286E+002	  4.90258E-005	  5.54170E-005	  5.73923E-005	  3.17255E-005
  1.70394E+002	 -8.10157E-005	 -8.01275E-005	 -9.15939E-005	 -7.99667E-005
  1.83501E+002	  7.65836E-005	  6.39291E-005	  4.78287E-005	  1.03911E-004
  1.96608E+002	 -2.41083E-005	 -2.23591E-005	 -2.42558E-005	 -2.23546E-005
  2.09715E+002	  3.40045E-006	 -1.25846E-005	  2.15429E-006	  6.77328E-007
  2.35930E+002	  2.48886E-005	  2.98142E-005	  2.99582E-005	  2.61042E-005
  2.62144E+002	 -1.85279E-005	 -1.37775E-005	 -1.28532E-005	 -2.50145E-005
  2.88358E+002	 -3.62258E-005	 -4.08234E-005	 -3.30331E-005	 -4.70522E-005
  3.14573E+002	  1.56033E-006	 -6.75205E-006	  7.49283E-006	 -1.32642E-005
  3.40787E+002	 -3.39709E-005	 -3.55831E-005	 -2.09972E-005	 -4.04147E-005
  3.67002E+002	 -5.62883E-005	 -7.41108E-005	 -5.82475E-005	 -5.48811E-005
  3.93216E+002	 -1.08033E-005	 -1.15217E-005	  5.45033E-006	 -1.72488E-005
  4.19430E+002	  2.51889E-005	  7.29254E-006	  3.21168E-005	  2.22510E-005
  4.71859E+002	  4.39513E-005	  3.56977E-005	  3.79378E-005	  5.62626E-005
  5.24288E+002	  1.33045E-005	  8.08312E-006	  1.35462E-005	  1.27820E-005
  5.76717E+002	 -1.89851E-005	 -3.25407E-006	 -2.07137E-005	 -1.86977E-005
  6.29146E+002	 -2.66234E-005	 -1.41974E-005	 -3.68047E-005	 -1.99999E-005
  6.81574E+002	  1.88475E-005	  2.41819E-005	  1.62154E-005	  1.58237E-005
  7.34003E+002	  3.28879E-005	  2.83012E-005	  3.65123E-005	  2.79821E-005
  7.86432E+002	  2.03487E-005	  1.72844E-005	  8.27384E-006	  2.39344E-005
  8.38861E+002	  3.81873E-006	 -1.50398E-006	  2.11921E-006	  5.00228E-006
  9.43718E+002	 -1.28123E-005	 -2.01568E-005	 -1.67780E-005	 -7.28300E-006
  1.04858E+003	 -2.79542E-005	 -2.28038E-005	 -1.90459E-005	 -3.00902E-005
  1.15343E+003	 -4.17794E-006	 -2.89808E-006	  4.14094E-006	 -1.56875E-005
  1.25829E+003	 -1.80893E-005	 -1.94530E-005	 -1.49706E-005	 -1.87671E-005
  1.36315E+003	 -5.77813E-006	 -7.46409E-006	 -1.14822E-005	 -2.44317E-006
  1.46801E+003	  8.00586E-006	 -2.29315E-006	  1.29273E-005	 -9.65977E-007
  1.57286E+003	 -2.52380E-005	 -3.30661E-005	 -3.74969E-005	 -1.12355E-005
  1.67772E+003	 -2.03850E-005	 -2.88495E-005	 -1.87298E-005	 -1.44976E-005
  1.88744E+003	  6.36440E-006	  1.02859E-005	  1.41160E-005	  1.36993E-006
  2.09715E+003	  1.12662E-005	  1.54418E-005	  7.32854E-006	  1.19644E-005
  2.30687E+003	  5.04190E-007	 -4.86775E-006	  5.28211E-006	 -1.96477E-006
  2.51658E+003	  2.03947E-006	 -8.10829E-008	  6.89501E-006	 -3.69837E-006
  2.72630E+003	 -5.29032E-006	 -2.08441E-006	 -7.36636E-006	 -2.08574E-006
  2.93601E+003	  1.58075E-005	  1.33644E-005	  1.95776E-005	  1.12145E-005
  3.14573E+003	 -1.16413E-005	 -1.68630E-005	 -1.21919E-005	 -1.44092E-005
  3.35544E+003	 -2.56923E-005	 -3.11259E-005	 -2.11451E-005	 -3.07427E-005
  3.77487E+003	 -1.69811E-005	 -1.67658E-005	 -2.33144E-005	 -9.78713E-006
  4.19430E+003	  1.75314E-005	  1.73007E-005	  1.94024E-005	  1.51575E-005
  4.61373E+003	 -1.12512E-005	 -1.05670E-005	 -1.14809E-005	 -1.46659E-005
  5.03317E+003	  1.57349E-005	  1.81374E-005	  1.98606E-005	  1.01343E-005
  5.45260E+003	 -9.17791E-007	  1.11332E-006	 -4.90213E-006	  4.74374E-007
  5.87203E+003	 -4.02243E-006	 -2.25163E-006	 -7.44602E-006	 -1.91934E-006
  6.29146E+003	 -5.80570E-006	 -1.54382E-006	 -1.91666E-006	 -8.53223E-006
  6.71089E+003	 -7.47515E-006	 -7.23783E-006	 -7.76320E-006	 -7.73901E-006
  7.54975E+003	 -1.22049E-005	 -1.38439E-005	 -1.15331E-005	 -1.20598E-005
  8.38861E+003	  3.91598E-006	  4.42117E-006	  3.05885E-006	  3.94249E-006
  9.22747E+003	 -1.65082E-005	 -1.44951E-005	 -1.84874E-005	 -1.32310E-005
  1.00663E+004	  2.30755E-006	 -1.19016E-006	  2.41760E-006	  2.98432E-006
  1.09052E+004	  7.37892E-006	  4.12635E-006	  5.21538E-006	  8.31817E-006
  1.17441E+004	 -3.69729E-006	 -6.61207E-006	 -8.69864E-006	 -8.98174E-007

"Count Rate"
       0.23438	     309.79517	     390.72314	     309.79517	     390.72314
       0.46875	     314.79102	     394.60550	     314.79102	     394.60550
       0.70313	     313.64337	     395.90247	     313.64337	     395.90247
       0.93750	     314.50519	     397.65164	     314.50519	     397.65164
       1.17188	     308.27206	     387.71536	     308.27206	     387.71536
       1.40625	     310.12793	     391.46973	     310.12793	     391.46973
       1.64063	     310.76788	     385.07452	     310.76788	     385.07452
       1.87500	     314.25772	     390.74448	     314.25772	     390.74448
       2.10938	     310.29858	     388.97394	     310.29858	     388.97394
       2.34375	     313.37888	     397.37433	     313.37888	     397.37433
       2.57813	     313.96335	     393.33838	     313.96335	     393.33838
       2.81250	     309.84634	     387.34421	     309.84634	     387.34421
       3.04688	     313.45993	     390.25385	     313.45993	     390.25385
       3.28125	     311.64249	     392.87335	     311.64249	     392.87335
       3.51563	     311.49316	     391.58066	     311.49316	     391.58066
       3.75000	     321.15637	     401.94785	     321.15637	     401.94785
       3.98438	     312.36349	     393.31281	     312.36349	     393.31281
       4.21875	     324.38174	     402.14835	     324.38174	     402.14835
       4.45313	     309.65436	     387.03275	     309.65436	     387.03275
